"E5_agua 1 - RawData"
"Wavelength nm."	"Abs."
190.000	 
191.000	 
192.000	 
193.000	 
194.000	 
195.000	 
196.000	 
197.000	 
198.000	 
199.000	 
200.000	3.863754
201.000	3.937958
202.000	3.596924
203.000	3.709198
204.000	3.573257
205.000	3.946274
206.000	3.970535
207.000	3.722260
208.000	3.923386
209.000	3.664856
210.000	3.993103
211.000	3.876755
212.000	3.857269
213.000	3.864426
214.000	3.906998
215.000	3.846405
216.000	3.840363
217.000	3.980194
218.000	3.819534
219.000	3.948349
220.000	3.941666
221.000	3.829834
222.000	3.941467
223.000	3.882355
224.000	3.977692
225.000	3.792374
226.000	3.765152
227.000	3.678543
228.000	3.447388
229.000	3.101624
230.000	3.008667
231.000	2.796310
232.000	2.707062
233.000	2.576096
234.000	2.509491
235.000	2.422791
236.000	2.333679
237.000	2.269897
238.000	2.213715
239.000	2.171051
240.000	2.117905
241.000	2.065887
242.000	2.007019
243.000	1.979340
244.000	1.941666
245.000	1.898865
246.000	1.875351
247.000	1.843781
248.000	1.823074
249.000	1.805267
250.000	1.777588
251.000	1.770004
252.000	1.757629
253.000	1.753769
254.000	1.752090
255.000	1.759048
256.000	1.771591
257.000	1.779083
258.000	1.789886
259.000	1.805923
260.000	1.826111
261.000	1.843460
262.000	1.854324
263.000	1.868591
264.000	1.883636
265.000	1.873566
266.000	1.898743
267.000	1.886810
268.000	1.893066
269.000	1.892151
270.000	1.887253
271.000	1.879395
272.000	1.851166
273.000	1.837006
274.000	1.827408
275.000	1.802231
276.000	1.776093
277.000	1.749283
278.000	1.716431
279.000	1.692093
280.000	1.659851
281.000	1.631577
282.000	1.598068
283.000	1.573853
284.000	1.533936
285.000	1.509811
286.000	1.474213
287.000	1.452682
288.000	1.434448
289.000	1.403610
290.000	1.380310
291.000	1.359787
292.000	1.334671
293.000	1.321533
294.000	1.297058
295.000	1.287903
296.000	1.275116
297.000	1.263107
298.000	1.257462
299.000	1.248810
300.000	1.242554
301.000	1.236862
302.000	1.236267
303.000	1.240677
304.000	1.240814
305.000	1.247528
306.000	1.250076
307.000	1.252563
308.000	1.264938
309.000	1.268906
310.000	1.275970
311.000	1.284454
312.000	1.293274
313.000	1.303101
314.000	1.298340
315.000	1.317154
316.000	1.321487
317.000	1.325775
318.000	1.330551
319.000	1.337204
320.000	1.333588
321.000	1.336823
322.000	1.333313
323.000	1.332764
324.000	1.331619
325.000	1.325500
326.000	1.322998
327.000	1.320038
328.000	1.315567
329.000	1.305466
330.000	1.294876
331.000	1.286255
332.000	1.280869
333.000	1.260574
334.000	1.243607
335.000	1.226028
336.000	1.208038
337.000	1.192184
338.000	1.169754
339.000	1.158112
340.000	1.135788
341.000	1.115738
342.000	1.082458
343.000	1.067520
344.000	1.045685
345.000	1.014618
346.000	0.996185
347.000	0.972366
348.000	0.945648
349.000	0.923813
350.000	0.895828
351.000	0.869644
352.000	0.847610
353.000	0.821060
354.000	0.796631
355.000	0.774338
356.000	0.747696
357.000	0.730042
358.000	0.703857
359.000	0.687103
360.000	0.667191
361.000	0.648651
362.000	0.629807
363.000	0.612228
364.000	0.593048
365.000	0.577087
366.000	0.562180
367.000	0.547272
368.000	0.533203
369.000	0.519043
370.000	0.507446
371.000	0.493835
372.000	0.482895
373.000	0.470306
374.000	0.459274
375.000	0.448807
376.000	0.439163
377.000	0.428726
378.000	0.419861
379.000	0.409988
380.000	0.401505
381.000	0.392532
382.000	0.384964
383.000	0.376541
384.000	0.369385
385.000	0.361710
386.000	0.353806
387.000	0.346909
388.000	0.340408
389.000	0.334122
390.000	0.326584
391.000	0.319855
392.000	0.313248
393.000	0.307327
394.000	0.300980
395.000	0.294754
396.000	0.288574
397.000	0.282318
398.000	0.276016
399.000	0.269470
400.000	0.263580
401.000	0.257339
402.000	0.251404
403.000	0.245361
404.000	0.239426
405.000	0.233597
406.000	0.227448
407.000	0.222427
408.000	0.216797
409.000	0.211090
410.000	0.206146
411.000	0.200394
412.000	0.194916
413.000	0.190399
414.000	0.185562
415.000	0.180466
416.000	0.175949
417.000	0.171127
418.000	0.166473
419.000	0.162247
420.000	0.158020
421.000	0.153915
422.000	0.149597
423.000	0.145477
424.000	0.141586
425.000	0.137558
426.000	0.133774
427.000	0.130051
428.000	0.126053
429.000	0.122620
430.000	0.119232
431.000	0.116013
432.000	0.112625
433.000	0.109451
434.000	0.106125
435.000	0.103180
436.000	0.100800
437.000	0.097809
438.000	0.095291
439.000	0.092789
440.000	0.090363
441.000	0.088150
442.000	0.085709
443.000	0.083389
444.000	0.081436
445.000	0.079605
446.000	0.077698
447.000	0.075653
448.000	0.073975
449.000	0.072327
450.000	0.070633
451.000	0.069046
452.000	0.067535
453.000	0.066162
454.000	0.064728
455.000	0.063263
456.000	0.062149
457.000	0.060791
458.000	0.059814
459.000	0.058640
460.000	0.057648
461.000	0.056961
462.000	0.056091
463.000	0.055237
464.000	0.054565
465.000	0.053787
466.000	0.053284
467.000	0.052490
468.000	0.052002
469.000	0.051773
470.000	0.051361
471.000	0.051086
472.000	0.050598
473.000	0.050415
474.000	0.050110
475.000	0.049988
476.000	0.049835
477.000	0.049820
478.000	0.049866
479.000	0.050095
480.000	0.050140
481.000	0.050095
482.000	0.050308
483.000	0.050659
484.000	0.050842
485.000	0.051193
486.000	0.051453
487.000	0.051941
488.000	0.052261
489.000	0.052643
490.000	0.053146
491.000	0.053635
492.000	0.054260
493.000	0.054703
494.000	0.055573
495.000	0.055984
496.000	0.056641
497.000	0.057449
498.000	0.058014
499.000	0.058853
500.000	0.059784
501.000	0.060593
502.000	0.061386
503.000	0.062256
504.000	0.063278
505.000	0.064056
506.000	0.065063
507.000	0.066101
508.000	0.067001
509.000	0.068024
510.000	0.069031
511.000	0.069794
512.000	0.070969
513.000	0.072083
514.000	0.073013
515.000	0.074081
516.000	0.075226
517.000	0.076324
518.000	0.077301
519.000	0.078415
520.000	0.079636
521.000	0.080688
522.000	0.081940
523.000	0.083282
524.000	0.084381
525.000	0.085571
526.000	0.086792
527.000	0.088303
528.000	0.089645
529.000	0.090912
530.000	0.092453
531.000	0.093613
532.000	0.095200
533.000	0.096680
534.000	0.098022
535.000	0.099380
536.000	0.100708
537.000	0.102386
538.000	0.103912
539.000	0.105392
540.000	0.106918
541.000	0.108414
542.000	0.109940
543.000	0.111557
544.000	0.113022
545.000	0.114639
546.000	0.116135
547.000	0.117722
548.000	0.119339
549.000	0.120880
550.000	0.122406
551.000	0.123871
552.000	0.125381
553.000	0.126938
554.000	0.128311
555.000	0.129868
556.000	0.131363
557.000	0.132645
558.000	0.134064
559.000	0.135452
560.000	0.136734
561.000	0.138077
562.000	0.139297
563.000	0.140701
564.000	0.141876
565.000	0.143311
566.000	0.144547
567.000	0.145660
568.000	0.147064
569.000	0.148254
570.000	0.149536
571.000	0.150711
572.000	0.152008
573.000	0.153259
574.000	0.154465
575.000	0.155579
576.000	0.156693
577.000	0.157867
578.000	0.159042
579.000	0.160141
580.000	0.161301
581.000	0.162537
582.000	0.163528
583.000	0.164551
584.000	0.165527
585.000	0.166534
586.000	0.167648
587.000	0.168518
588.000	0.169373
589.000	0.170502
590.000	0.171280
591.000	0.172028
592.000	0.172913
593.000	0.173401
594.000	0.174194
595.000	0.174713
596.000	0.175278
597.000	0.175720
598.000	0.175919
599.000	0.176346
600.000	0.176437
601.000	0.176376
602.000	0.176331
603.000	0.176208
604.000	0.175934
605.000	0.175568
606.000	0.175034
607.000	0.174347
608.000	0.173538
609.000	0.172653
610.000	0.171677
611.000	0.170425
612.000	0.168884
613.000	0.167404
614.000	0.165726
615.000	0.163712
616.000	0.161850
617.000	0.159668
618.000	0.157272
619.000	0.154739
620.000	0.152008
621.000	0.149139
622.000	0.146027
623.000	0.142883
624.000	0.139587
625.000	0.135986
626.000	0.132401
627.000	0.128586
628.000	0.124786
629.000	0.120956
630.000	0.117142
631.000	0.113617
632.000	0.109772
633.000	0.105972
634.000	0.102356
635.000	0.098679
636.000	0.095200
637.000	0.091370
638.000	0.088196
639.000	0.084717
640.000	0.081665
641.000	0.078445
642.000	0.075653
643.000	0.072556
644.000	0.069870
645.000	0.067307
646.000	0.064835
647.000	0.062515
648.000	0.060287
649.000	0.058167
650.000	0.056274
651.000	0.054367
652.000	0.052719
653.000	0.051117
654.000	0.049713
655.000	0.048141
656.000	0.047012
657.000	0.045746
658.000	0.044586
659.000	0.043610
660.000	0.042435
661.000	0.041351
662.000	0.040604
663.000	0.039841
664.000	0.038971
665.000	0.038208
666.000	0.037399
667.000	0.036560
668.000	0.035980
669.000	0.035294
670.000	0.034622
671.000	0.034027
672.000	0.033432
673.000	0.032761
674.000	0.032227
675.000	0.031586
676.000	0.031052
677.000	0.030441
678.000	0.029770
679.000	0.029358
680.000	0.028732
681.000	0.028107
682.000	0.027664
683.000	0.027161
684.000	0.026596
685.000	0.026123
686.000	0.025482
687.000	0.024887
688.000	0.024414
689.000	0.023941
690.000	0.023361
691.000	0.022842
692.000	0.022217
693.000	0.021698
694.000	0.021271
695.000	0.020706
696.000	0.020172
697.000	0.019592
698.000	0.019058
699.000	0.018478
700.000	0.018005
701.000	0.017563
702.000	0.016998
703.000	0.016602
704.000	0.016098
705.000	0.015625
706.000	0.015244
707.000	0.014771
708.000	0.014328
709.000	0.013916
710.000	0.013458
711.000	0.012970
712.000	0.012726
713.000	0.012344
714.000	0.011917
715.000	0.011429
716.000	0.011063
717.000	0.010681
718.000	0.010208
719.000	0.009995
720.000	0.009644
721.000	0.009293
722.000	0.009018
723.000	0.008438
724.000	0.008255
725.000	0.008118
726.000	0.007767
727.000	0.007401
728.000	0.007202
729.000	0.006912
730.000	0.006668
731.000	0.006378
732.000	0.006195
733.000	0.005981
734.000	0.005676
735.000	0.005508
736.000	0.005310
737.000	0.005096
738.000	0.004929
739.000	0.004700
740.000	0.004456
741.000	0.004410
742.000	0.004150
743.000	0.004028
744.000	0.003906
745.000	0.003876
746.000	0.003723
747.000	0.003647
748.000	0.003571
749.000	0.003387
750.000	0.003067
751.000	0.003098
752.000	0.003113
753.000	0.002853
754.000	0.002747
755.000	0.002747
756.000	0.002701
757.000	0.002548
758.000	0.002518
759.000	0.002426
760.000	0.002426
761.000	0.002411
762.000	0.002182
763.000	0.002182
764.000	0.002243
765.000	0.002258
766.000	0.002106
767.000	0.001968
768.000	0.001831
769.000	0.001923
770.000	0.001801
771.000	0.001877
772.000	0.001846
773.000	0.001709
774.000	0.001724
775.000	0.001541
776.000	0.001633
777.000	0.001556
778.000	0.001541
779.000	0.001572
780.000	0.001419
781.000	0.001389
782.000	0.001419
783.000	0.001373
784.000	0.001373
785.000	0.001236
786.000	0.001175
787.000	0.001190
788.000	0.001160
789.000	0.001099
790.000	0.001144
791.000	0.001053
792.000	0.001144
793.000	0.001022
794.000	0.001160
795.000	0.001038
796.000	0.001068
797.000	0.001068
798.000	0.001099
799.000	0.001053
800.000	0.001068
801.000	 
802.000	 
803.000	 
804.000	 
805.000	 
806.000	 
807.000	 
808.000	 
809.000	 
810.000	 
811.000	 
812.000	 
813.000	 
814.000	 
815.000	 
816.000	 
817.000	 
818.000	 
819.000	 
820.000	 
821.000	 
822.000	 
823.000	 
824.000	 
825.000	 
826.000	 
827.000	 
828.000	 
829.000	 
830.000	 
831.000	 
832.000	 
833.000	 
834.000	 
835.000	 
836.000	 
837.000	 
838.000	 
839.000	 
840.000	 
841.000	 
842.000	 
843.000	 
844.000	 
845.000	 
846.000	 
847.000	 
848.000	 
849.000	 
850.000	 
851.000	 
852.000	 
853.000	 
854.000	 
855.000	 
856.000	 
857.000	 
858.000	 
859.000	 
860.000	 
861.000	 
862.000	 
863.000	 
864.000	 
865.000	 
866.000	 
867.000	 
868.000	 
869.000	 
870.000	 
871.000	 
872.000	 
873.000	 
874.000	 
875.000	 
876.000	 
877.000	 
878.000	 
879.000	 
880.000	 
881.000	 
882.000	 
883.000	 
884.000	 
885.000	 
886.000	 
887.000	 
888.000	 
889.000	 
890.000	 
891.000	 
892.000	 
893.000	 
894.000	 
895.000	 
896.000	 
897.000	 
898.000	 
899.000	 
900.000	 
901.000	 
902.000	 
903.000	 
904.000	 
905.000	 
906.000	 
907.000	 
908.000	 
909.000	 
910.000	 
911.000	 
912.000	 
913.000	 
914.000	 
915.000	 
916.000	 
917.000	 
918.000	 
919.000	 
920.000	 
921.000	 
922.000	 
923.000	 
924.000	 
925.000	 
926.000	 
927.000	 
928.000	 
929.000	 
930.000	 
931.000	 
932.000	 
933.000	 
934.000	 
935.000	 
936.000	 
937.000	 
938.000	 
939.000	 
940.000	 
941.000	 
942.000	 
943.000	 
944.000	 
945.000	 
946.000	 
947.000	 
948.000	 
949.000	 
950.000	 
951.000	 
952.000	 
953.000	 
954.000	 
955.000	 
956.000	 
957.000	 
958.000	 
959.000	 
960.000	 
961.000	 
962.000	 
963.000	 
964.000	 
965.000	 
966.000	 
967.000	 
968.000	 
969.000	 
970.000	 
971.000	 
972.000	 
973.000	 
974.000	 
975.000	 
976.000	 
977.000	 
978.000	 
979.000	 
980.000	 
981.000	 
982.000	 
983.000	 
984.000	 
985.000	 
986.000	 
987.000	 
988.000	 
989.000	 
990.000	 
991.000	 
992.000	 
993.000	 
994.000	 
995.000	 
996.000	 
997.000	 
998.000	 
999.000	 
1000.000	 
1001.000	 
1002.000	 
1003.000	 
1004.000	 
1005.000	 
1006.000	 
1007.000	 
1008.000	 
1009.000	 
1010.000	 
1011.000	 
1012.000	 
1013.000	 
1014.000	 
1015.000	 
1016.000	 
1017.000	 
1018.000	 
1019.000	 
1020.000	 
1021.000	 
1022.000	 
1023.000	 
1024.000	 
1025.000	 
1026.000	 
1027.000	 
1028.000	 
1029.000	 
1030.000	 
1031.000	 
1032.000	 
1033.000	 
1034.000	 
1035.000	 
1036.000	 
1037.000	 
1038.000	 
1039.000	 
1040.000	 
1041.000	 
1042.000	 
1043.000	 
1044.000	 
1045.000	 
1046.000	 
1047.000	 
1048.000	 
1049.000	 
1050.000	 
1051.000	 
1052.000	 
1053.000	 
1054.000	 
1055.000	 
1056.000	 
1057.000	 
1058.000	 
1059.000	 
1060.000	 
1061.000	 
1062.000	 
1063.000	 
1064.000	 
1065.000	 
1066.000	 
1067.000	 
1068.000	 
1069.000	 
1070.000	 
1071.000	 
1072.000	 
1073.000	 
1074.000	 
1075.000	 
1076.000	 
1077.000	 
1078.000	 
1079.000	 
1080.000	 
1081.000	 
1082.000	 
1083.000	 
1084.000	 
1085.000	 
1086.000	 
1087.000	 
1088.000	 
1089.000	 
1090.000	 
1091.000	 
1092.000	 
1093.000	 
1094.000	 
1095.000	 
1096.000	 
1097.000	 
1098.000	 
1099.000	 
1100.000	 
