"E5_vinagre 2 - RawData"
"Wavelength nm."	"Abs."
190.000	 
191.000	 
192.000	 
193.000	 
194.000	 
195.000	 
196.000	 
197.000	 
198.000	 
199.000	 
200.000	3.926300
201.000	3.922546
202.000	3.558533
203.000	3.398361
204.000	4.000000
205.000	3.886734
206.000	3.724487
207.000	3.693527
208.000	3.725677
209.000	3.773300
210.000	3.843185
211.000	3.941437
212.000	4.000000
213.000	3.774643
214.000	3.838913
215.000	3.806015
216.000	3.861938
217.000	3.914154
218.000	3.666122
219.000	3.975830
220.000	3.890732
221.000	3.835358
222.000	3.953583
223.000	3.931519
224.000	3.936493
225.000	3.924896
226.000	3.985352
227.000	4.000000
228.000	3.773544
229.000	3.963486
230.000	3.876083
231.000	3.905579
232.000	3.798767
233.000	3.872681
234.000	4.000000
235.000	3.852570
236.000	4.000000
237.000	3.933075
238.000	3.906708
239.000	3.960724
240.000	3.935486
241.000	3.766800
242.000	3.898758
243.000	3.867599
244.000	3.944260
245.000	3.883698
246.000	3.955811
247.000	3.962875
248.000	3.783661
249.000	3.974182
250.000	3.781189
251.000	3.920654
252.000	4.000000
253.000	3.838913
254.000	3.823990
255.000	3.642319
256.000	3.711945
257.000	3.644775
258.000	3.685226
259.000	3.638565
260.000	3.780579
261.000	3.838974
262.000	3.743744
263.000	3.953705
264.000	3.770889
265.000	3.940399
266.000	3.818008
267.000	3.867508
268.000	3.597641
269.000	3.883606
270.000	3.606445
271.000	3.674103
272.000	3.703491
273.000	3.896683
274.000	3.523041
275.000	3.660477
276.000	3.889404
277.000	3.766510
278.000	3.735153
279.000	3.846970
280.000	4.000000
281.000	3.974304
282.000	3.666733
283.000	3.538605
284.000	3.519882
285.000	3.542206
286.000	3.842285
287.000	3.924561
288.000	3.460983
289.000	3.663467
290.000	3.760513
291.000	3.741043
292.000	3.916382
293.000	3.098877
294.000	3.214935
295.000	3.483292
296.000	3.398499
297.000	3.265686
298.000	3.028305
299.000	3.131241
300.000	3.028793
301.000	3.078491
302.000	3.079788
303.000	2.821274
304.000	2.898010
305.000	2.863281
306.000	2.976501
307.000	2.968079
308.000	3.390533
309.000	3.199341
310.000	2.907806
311.000	3.414505
312.000	2.909729
313.000	2.701431
314.000	2.856491
315.000	2.728592
316.000	2.851654
317.000	2.787674
318.000	3.098801
319.000	2.700073
320.000	2.801041
321.000	2.611465
322.000	2.635742
323.000	2.699188
324.000	2.925308
325.000	2.743500
326.000	2.806931
327.000	2.520874
328.000	2.447586
329.000	2.445343
330.000	2.502274
331.000	2.372375
332.000	2.310486
333.000	2.265610
334.000	2.384003
335.000	2.255432
336.000	2.187576
337.000	2.119751
338.000	2.033066
339.000	2.129425
340.000	2.001007
341.000	1.949524
342.000	1.898254
343.000	1.885818
344.000	1.885742
345.000	1.839188
346.000	1.780457
347.000	1.725082
348.000	1.647705
349.000	1.588669
350.000	1.564896
351.000	1.509598
352.000	1.466125
353.000	1.394882
354.000	1.362122
355.000	1.320755
356.000	1.282959
357.000	1.220734
358.000	1.178741
359.000	1.141647
360.000	1.104935
361.000	1.070267
362.000	1.034500
363.000	1.000549
364.000	0.965256
365.000	0.933823
366.000	0.904526
367.000	0.876083
368.000	0.848389
369.000	0.816940
370.000	0.794510
371.000	0.775589
372.000	0.747894
373.000	0.725403
374.000	0.706039
375.000	0.684662
376.000	0.666626
377.000	0.648346
378.000	0.628830
379.000	0.612579
380.000	0.596558
381.000	0.582260
382.000	0.567551
383.000	0.553207
384.000	0.542053
385.000	0.529419
386.000	0.517929
387.000	0.507751
388.000	0.496521
389.000	0.486572
390.000	0.476410
391.000	0.466797
392.000	0.458084
393.000	0.450073
394.000	0.440979
395.000	0.432495
396.000	0.425705
397.000	0.418747
398.000	0.410553
399.000	0.404419
400.000	0.398575
401.000	0.391861
402.000	0.385651
403.000	0.379852
404.000	0.373795
405.000	0.368042
406.000	0.363037
407.000	0.358093
408.000	0.353668
409.000	0.348862
410.000	0.345123
411.000	0.340790
412.000	0.336349
413.000	0.332886
414.000	0.329224
415.000	0.325821
416.000	0.322754
417.000	0.319138
418.000	0.316238
419.000	0.313370
420.000	0.310287
421.000	0.308075
422.000	0.305267
423.000	0.302811
424.000	0.300125
425.000	0.297989
426.000	0.295853
427.000	0.293533
428.000	0.291458
429.000	0.289658
430.000	0.287857
431.000	0.285980
432.000	0.284210
433.000	0.282669
434.000	0.281113
435.000	0.279846
436.000	0.278717
437.000	0.277161
438.000	0.276016
439.000	0.275055
440.000	0.273911
441.000	0.272995
442.000	0.272217
443.000	0.271439
444.000	0.270386
445.000	0.270004
446.000	0.269089
447.000	0.268555
448.000	0.268112
449.000	0.267899
450.000	0.267853
451.000	0.267715
452.000	0.267624
453.000	0.267487
454.000	0.267639
455.000	0.267685
456.000	0.267899
457.000	0.268158
458.000	0.268936
459.000	0.269440
460.000	0.270065
461.000	0.270905
462.000	0.271759
463.000	0.272476
464.000	0.273514
465.000	0.274475
466.000	0.275848
467.000	0.276978
468.000	0.278397
469.000	0.279724
470.000	0.281357
471.000	0.282730
472.000	0.284363
473.000	0.286133
474.000	0.287903
475.000	0.289963
476.000	0.291931
477.000	0.294189
478.000	0.296127
479.000	0.298721
480.000	0.301010
481.000	0.303375
482.000	0.306046
483.000	0.308762
484.000	0.311295
485.000	0.313858
486.000	0.316437
487.000	0.319016
488.000	0.321686
489.000	0.324356
490.000	0.327179
491.000	0.329834
492.000	0.332504
493.000	0.335327
494.000	0.338013
495.000	0.340622
496.000	0.343338
497.000	0.346222
498.000	0.348892
499.000	0.351807
500.000	0.354599
501.000	0.357300
502.000	0.360245
503.000	0.362854
504.000	0.365646
505.000	0.368134
506.000	0.370804
507.000	0.373489
508.000	0.375809
509.000	0.378128
510.000	0.380234
511.000	0.382187
512.000	0.384216
513.000	0.386093
514.000	0.387848
515.000	0.389435
516.000	0.390991
517.000	0.392426
518.000	0.393494
519.000	0.394775
520.000	0.395889
521.000	0.396713
522.000	0.397141
523.000	0.397751
524.000	0.398010
525.000	0.398071
526.000	0.397766
527.000	0.397415
528.000	0.396851
529.000	0.395905
530.000	0.394867
531.000	0.393219
532.000	0.391663
533.000	0.389709
534.000	0.387512
535.000	0.385208
536.000	0.382278
537.000	0.379349
538.000	0.375946
539.000	0.372406
540.000	0.368484
541.000	0.364395
542.000	0.360016
543.000	0.355576
544.000	0.350525
545.000	0.345474
546.000	0.340134
547.000	0.334457
548.000	0.328400
549.000	0.322495
550.000	0.316116
551.000	0.309509
552.000	0.302444
553.000	0.295456
554.000	0.288651
555.000	0.281296
556.000	0.274490
557.000	0.267212
558.000	0.260223
559.000	0.253036
560.000	0.246155
561.000	0.239380
562.000	0.232498
563.000	0.225784
564.000	0.218826
565.000	0.212006
566.000	0.205505
567.000	0.199142
568.000	0.193054
569.000	0.187088
570.000	0.181030
571.000	0.175232
572.000	0.169662
573.000	0.164185
574.000	0.158859
575.000	0.153717
576.000	0.148544
577.000	0.143692
578.000	0.139114
579.000	0.134598
580.000	0.130219
581.000	0.126144
582.000	0.122101
583.000	0.118362
584.000	0.114517
585.000	0.111176
586.000	0.107864
587.000	0.104691
588.000	0.101563
589.000	0.098572
590.000	0.095535
591.000	0.092636
592.000	0.089966
593.000	0.087250
594.000	0.084488
595.000	0.081879
596.000	0.079483
597.000	0.076874
598.000	0.074600
599.000	0.072235
600.000	0.070099
601.000	0.067810
602.000	0.065781
603.000	0.063736
604.000	0.061829
605.000	0.060120
606.000	0.058304
607.000	0.056610
608.000	0.055145
609.000	0.053665
610.000	0.052322
611.000	0.050964
612.000	0.049591
613.000	0.048431
614.000	0.047363
615.000	0.046143
616.000	0.045242
617.000	0.044296
618.000	0.043411
619.000	0.042694
620.000	0.042114
621.000	0.041580
622.000	0.041016
623.000	0.040512
624.000	0.039993
625.000	0.039627
626.000	0.039413
627.000	0.039139
628.000	0.038971
629.000	0.038849
630.000	0.038635
631.000	0.038696
632.000	0.038605
633.000	0.038635
634.000	0.038635
635.000	0.038681
636.000	0.038651
637.000	0.038681
638.000	0.038788
639.000	0.038757
640.000	0.038956
641.000	0.038971
642.000	0.039124
643.000	0.039322
644.000	0.039474
645.000	0.039795
646.000	0.039902
647.000	0.040115
648.000	0.040146
649.000	0.040222
650.000	0.040375
651.000	0.040253
652.000	0.040390
653.000	0.040451
654.000	0.040421
655.000	0.040283
656.000	0.040436
657.000	0.040283
658.000	0.040405
659.000	0.040192
660.000	0.040100
661.000	0.040100
662.000	0.039993
663.000	0.039825
664.000	0.039810
665.000	0.039627
666.000	0.039581
667.000	0.039398
668.000	0.039230
669.000	0.038971
670.000	0.038727
671.000	0.038513
672.000	0.038452
673.000	0.038101
674.000	0.037827
675.000	0.037537
676.000	0.037170
677.000	0.036972
678.000	0.036606
679.000	0.036377
680.000	0.036072
681.000	0.035873
682.000	0.035553
683.000	0.035278
684.000	0.034958
685.000	0.034576
686.000	0.034180
687.000	0.033722
688.000	0.033524
689.000	0.033142
690.000	0.032791
691.000	0.032425
692.000	0.032166
693.000	0.031830
694.000	0.031586
695.000	0.031204
696.000	0.030777
697.000	0.030396
698.000	0.030014
699.000	0.029587
700.000	0.029266
701.000	0.028870
702.000	0.028442
703.000	0.028137
704.000	0.027695
705.000	0.027283
706.000	0.027023
707.000	0.026642
708.000	0.026291
709.000	0.025986
710.000	0.025650
711.000	0.025513
712.000	0.025070
713.000	0.024826
714.000	0.024384
715.000	0.023865
716.000	0.023712
717.000	0.023453
718.000	0.022995
719.000	0.022583
720.000	0.022156
721.000	0.021912
722.000	0.021606
723.000	0.021042
724.000	0.020859
725.000	0.020416
726.000	0.020309
727.000	0.019760
728.000	0.019501
729.000	0.019119
730.000	0.018768
731.000	0.018478
732.000	0.018234
733.000	0.017944
734.000	0.017517
735.000	0.017380
736.000	0.017014
737.000	0.016769
738.000	0.016357
739.000	0.016022
740.000	0.015671
741.000	0.015442
742.000	0.015076
743.000	0.014862
744.000	0.014481
745.000	0.014343
746.000	0.014084
747.000	0.013748
748.000	0.013565
749.000	0.013138
750.000	0.012863
751.000	0.012527
752.000	0.012268
753.000	0.012131
754.000	0.011734
755.000	0.011475
756.000	0.011200
757.000	0.010834
758.000	0.010544
759.000	0.010284
760.000	0.009903
761.000	0.009537
762.000	0.009171
763.000	0.008911
764.000	0.008896
765.000	0.008728
766.000	0.008469
767.000	0.008194
768.000	0.007950
769.000	0.007660
770.000	0.007385
771.000	0.007187
772.000	0.007034
773.000	0.006775
774.000	0.006668
775.000	0.006409
776.000	0.006226
777.000	0.006027
778.000	0.005768
779.000	0.005768
780.000	0.005402
781.000	0.005219
782.000	0.004990
783.000	0.004776
784.000	0.004578
785.000	0.004349
786.000	0.004150
787.000	0.003952
788.000	0.003815
789.000	0.003677
790.000	0.003479
791.000	0.003296
792.000	0.003021
793.000	0.002808
794.000	0.002716
795.000	0.002350
796.000	0.002213
797.000	0.001953
798.000	0.001984
799.000	0.001724
800.000	0.001648
801.000	 
802.000	 
803.000	 
804.000	 
805.000	 
806.000	 
807.000	 
808.000	 
809.000	 
810.000	 
811.000	 
812.000	 
813.000	 
814.000	 
815.000	 
816.000	 
817.000	 
818.000	 
819.000	 
820.000	 
821.000	 
822.000	 
823.000	 
824.000	 
825.000	 
826.000	 
827.000	 
828.000	 
829.000	 
830.000	 
831.000	 
832.000	 
833.000	 
834.000	 
835.000	 
836.000	 
837.000	 
838.000	 
839.000	 
840.000	 
841.000	 
842.000	 
843.000	 
844.000	 
845.000	 
846.000	 
847.000	 
848.000	 
849.000	 
850.000	 
851.000	 
852.000	 
853.000	 
854.000	 
855.000	 
856.000	 
857.000	 
858.000	 
859.000	 
860.000	 
861.000	 
862.000	 
863.000	 
864.000	 
865.000	 
866.000	 
867.000	 
868.000	 
869.000	 
870.000	 
871.000	 
872.000	 
873.000	 
874.000	 
875.000	 
876.000	 
877.000	 
878.000	 
879.000	 
880.000	 
881.000	 
882.000	 
883.000	 
884.000	 
885.000	 
886.000	 
887.000	 
888.000	 
889.000	 
890.000	 
891.000	 
892.000	 
893.000	 
894.000	 
895.000	 
896.000	 
897.000	 
898.000	 
899.000	 
900.000	 
901.000	 
902.000	 
903.000	 
904.000	 
905.000	 
906.000	 
907.000	 
908.000	 
909.000	 
910.000	 
911.000	 
912.000	 
913.000	 
914.000	 
915.000	 
916.000	 
917.000	 
918.000	 
919.000	 
920.000	 
921.000	 
922.000	 
923.000	 
924.000	 
925.000	 
926.000	 
927.000	 
928.000	 
929.000	 
930.000	 
931.000	 
932.000	 
933.000	 
934.000	 
935.000	 
936.000	 
937.000	 
938.000	 
939.000	 
940.000	 
941.000	 
942.000	 
943.000	 
944.000	 
945.000	 
946.000	 
947.000	 
948.000	 
949.000	 
950.000	 
951.000	 
952.000	 
953.000	 
954.000	 
955.000	 
956.000	 
957.000	 
958.000	 
959.000	 
960.000	 
961.000	 
962.000	 
963.000	 
964.000	 
965.000	 
966.000	 
967.000	 
968.000	 
969.000	 
970.000	 
971.000	 
972.000	 
973.000	 
974.000	 
975.000	 
976.000	 
977.000	 
978.000	 
979.000	 
980.000	 
981.000	 
982.000	 
983.000	 
984.000	 
985.000	 
986.000	 
987.000	 
988.000	 
989.000	 
990.000	 
991.000	 
992.000	 
993.000	 
994.000	 
995.000	 
996.000	 
997.000	 
998.000	 
999.000	 
1000.000	 
1001.000	 
1002.000	 
1003.000	 
1004.000	 
1005.000	 
1006.000	 
1007.000	 
1008.000	 
1009.000	 
1010.000	 
1011.000	 
1012.000	 
1013.000	 
1014.000	 
1015.000	 
1016.000	 
1017.000	 
1018.000	 
1019.000	 
1020.000	 
1021.000	 
1022.000	 
1023.000	 
1024.000	 
1025.000	 
1026.000	 
1027.000	 
1028.000	 
1029.000	 
1030.000	 
1031.000	 
1032.000	 
1033.000	 
1034.000	 
1035.000	 
1036.000	 
1037.000	 
1038.000	 
1039.000	 
1040.000	 
1041.000	 
1042.000	 
1043.000	 
1044.000	 
1045.000	 
1046.000	 
1047.000	 
1048.000	 
1049.000	 
1050.000	 
1051.000	 
1052.000	 
1053.000	 
1054.000	 
1055.000	 
1056.000	 
1057.000	 
1058.000	 
1059.000	 
1060.000	 
1061.000	 
1062.000	 
1063.000	 
1064.000	 
1065.000	 
1066.000	 
1067.000	 
1068.000	 
1069.000	 
1070.000	 
1071.000	 
1072.000	 
1073.000	 
1074.000	 
1075.000	 
1076.000	 
1077.000	 
1078.000	 
1079.000	 
1080.000	 
1081.000	 
1082.000	 
1083.000	 
1084.000	 
1085.000	 
1086.000	 
1087.000	 
1088.000	 
1089.000	 
1090.000	 
1091.000	 
1092.000	 
1093.000	 
1094.000	 
1095.000	 
1096.000	 
1097.000	 
1098.000	 
1099.000	 
1100.000	 
